File: Suppl data/Spectra/XRD spectra/MS01B.txt
MS01B
Wavelength = 1.54059
5	14.00
5.2247	8.00
5.4493	12.00
5.674	7.00
5.8987	9.00
6.1233	5.00
6.348	9.00
6.5727	4.00
6.7973	6.00
7.022	10.00
7.2467	10.00
7.4713	6.00
7.696	11.00
7.9207	9.00
8.1453	7.00
8.37	10.00
8.5947	9.00
8.8193	11.00
9.044	9.00
9.2687	7.00
9.4933	8.00
9.718	11.00
9.9427	12.00
10.1673	23.00
10.392	16.00
10.6167	11.00
10.8413	13.00
11.066	30.00
11.2907	23.00
11.5153	27.00
11.74	37.00
11.9647	60.00
12.1893	568.00
12.414	86.00
12.6387	27.00
12.8633	20.00
13.088	16.00
13.3126	22.00
13.5373	13.00
13.762	18.00
13.9866	14.00
14.2113	18.00
14.436	16.00
14.6606	16.00
14.8853	20.00
15.11	15.00
15.3346	28.00
15.5593	15.00
15.784	11.00
16.0086	11.00
16.2333	12.00
16.458	15.00
16.6826	16.00
16.9073	11.00
17.132	16.00
17.3566	46.00
17.5813	15.00
17.806	11.00
18.0306	12.00
18.2553	22.00
18.48	8.00
18.7046	16.00
18.9293	27.00
19.154	32.00
19.3786	50.00
19.6033	32.00
19.828	27.00
20.0526	32.00
20.2773	21.00
20.502	30.00
20.7266	22.00
20.9513	26.00
21.176	38.00
21.4006	26.00
21.6253	22.00
21.85	28.00
22.0746	28.00
22.2993	25.00
22.524	26.00
22.7486	33.00
22.9733	48.00
23.198	30.00
23.4226	31.00
23.6473	32.00
23.872	70.00
24.0966	59.00
24.3213	108.00
24.546	406.00
24.7706	174.00
24.9953	78.00
25.22	42.00
25.4446	73.00
25.6693	41.00
25.894	27.00
26.1186	16.00
26.3433	25.00
26.5679	34.00
26.7926	25.00
27.0173	24.00
27.2419	16.00
27.4666	27.00
27.6913	22.00
27.9159	22.00
28.1406	24.00
28.3653	19.00
28.5899	15.00
28.8146	20.00
29.0393	25.00
29.2639	24.00
29.4886	26.00
29.7133	43.00
29.9379	35.00
30.1626	46.00
30.3873	21.00
30.6119	19.00
30.8366	29.00
31.0613	20.00
31.2859	27.00
31.5106	28.00
31.7353	19.00
31.9599	31.00
32.1846	46.00
32.4093	35.00
32.6339	28.00
32.8586	30.00
33.0833	38.00
33.3079	21.00
33.5326	27.00
33.7573	34.00
33.9819	26.00
34.2066	39.00
34.4313	54.00
34.6559	66.00
34.8806	85.00
35.1053	83.00
35.3299	178.00
35.5546	449.00
35.7793	180.00
36.0039	91.00
36.2286	75.00
36.4533	447.00
36.6779	113.00
36.9026	87.00
37.1273	95.00
37.3519	62.00
37.5766	58.00
37.8013	45.00
38.0259	35.00
38.2506	73.00
38.4753	40.00
38.6999	43.00
38.9246	45.00
39.1492	43.00
39.3739	52.00
39.5986	150.00
39.8232	57.00
40.0479	77.00
40.2726	56.00
40.4972	51.00
40.7219	43.00
40.9466	54.00
41.1712	42.00
41.3959	74.00
41.6206	140.00
41.8452	138.00
42.0699	106.00
42.2946	79.00
42.5192	47.00
42.7439	47.00
42.9686	59.00
43.1932	41.00
43.4179	22.00
43.6426	33.00
43.8672	45.00
44.0919	30.00
44.3166	22.00
44.5412	23.00
44.7659	27.00
44.9906	39.00
45.2152	20.00
45.4399	29.00
45.6646	32.00
45.8892	26.00
46.1139	32.00
46.3386	38.00
46.5632	37.00
46.7879	34.00
47.0126	25.00
47.2372	28.00
47.4619	25.00
47.6866	24.00
47.9112	17.00
48.1359	35.00
48.3606	70.00
48.5852	37.00
48.8099	43.00
49.0346	52.00
49.2592	39.00
49.4839	64.00
49.7086	66.00
49.9332	62.00
50.1579	69.00
50.3826	54.00
50.6072	42.00
50.8319	49.00
51.0566	53.00
51.2812	59.00
51.5059	53.00
51.7305	48.00
51.9552	50.00
52.1799	298.00
52.4045	105.00
52.6292	101.00
52.8539	70.00
53.0785	47.00
53.3032	61.00
53.5279	55.00
53.7525	49.00
53.9772	51.00
54.2019	38.00
54.4265	47.00
54.6512	42.00
54.8759	60.00
55.1005	37.00
55.3252	45.00
55.5499	23.00
55.7745	51.00
55.9992	83.00
56.2239	60.00
56.4485	43.00
56.6732	70.00
56.8979	135.00
57.1225	68.00
57.3472	49.00
57.5719	33.00
57.7965	52.00
58.0212	43.00
58.2459	52.00
58.4705	50.00
58.6952	86.00
58.9199	90.00
59.1445	118.00
59.3692	72.00
59.5939	71.00
59.8185	106.00
60.0432	142.00
60.2679	129.00
60.4925	126.00
60.7172	132.00
60.9419	117.00
61.1665	123.00
61.3912	102.00
61.6159	100.00
61.8405	197.00
62.0652	98.00
62.2899	78.00
62.5145	118.00
62.7392	134.00
62.9639	62.00
63.1885	56.00
63.4132	50.00
63.6379	43.00
63.8625	45.00
64.0872	50.00
64.3118	55.00
64.5365	40.00
64.7612	45.00
64.9858	48.00
65.2105	44.00
65.4352	36.00
65.6598	38.00
65.8845	45.00
66.1092	29.00
66.3338	33.00
66.5585	44.00
66.7832	72.00
67.0078	71.00
67.2325	51.00
67.4572	45.00
67.6818	39.00
67.9065	39.00
68.1312	32.00
68.3558	39.00
68.5805	28.00
68.8052	41.00
69.0298	27.00
69.2545	45.00
69.4792	55.00
69.7038	51.00
69.9285	49.00
70.0102	45.00