File: Suppl data/Spectra/XRD spectra/MS02BRED.txt
MS02BED
Wavelength = 1.54059
5	5.00
5.2247	11.00
5.4493	8.00
5.674	8.00
5.8987	7.00
6.1233	12.00
6.348	8.00
6.5727	7.00
6.7973	13.00
7.022	9.00
7.2467	6.00
7.4713	3.00
7.696	5.00
7.9207	9.00
8.1453	10.00
8.37	11.00
8.5947	12.00
8.8193	8.00
9.044	17.00
9.2687	9.00
9.4933	8.00
9.718	13.00
9.9427	9.00
10.1673	12.00
10.392	11.00
10.6167	12.00
10.8413	14.00
11.066	21.00
11.2907	11.00
11.5153	11.00
11.74	13.00
11.9647	17.00
12.1893	20.00
12.414	10.00
12.6387	10.00
12.8633	17.00
13.088	10.00
13.3126	13.00
13.5373	19.00
13.762	15.00
13.9866	19.00
14.2113	13.00
14.436	14.00
14.6606	6.00
14.8853	12.00
15.11	11.00
15.3346	10.00
15.5593	14.00
15.784	13.00
16.0086	10.00
16.2333	13.00
16.458	17.00
16.6826	17.00
16.9073	17.00
17.132	18.00
17.3566	132.00
17.5813	16.00
17.806	11.00
18.0306	18.00
18.2553	10.00
18.48	13.00
18.7046	14.00
18.9293	8.00
19.154	15.00
19.3786	9.00
19.6033	9.00
19.828	10.00
20.0526	14.00
20.2773	25.00
20.502	23.00
20.7266	11.00
20.9513	13.00
21.176	12.00
21.4006	18.00
21.6253	14.00
21.85	14.00
22.0746	27.00
22.2993	17.00
22.524	20.00
22.7486	63.00
22.9733	178.00
23.198	34.00
23.4226	22.00
23.6473	24.00
23.872	116.00
24.0966	33.00
24.3213	21.00
24.546	15.00
24.7706	17.00
24.9953	19.00
25.22	17.00
25.4446	99.00
25.6693	41.00
25.894	22.00
26.1186	21.00
26.3433	22.00
26.5679	21.00
26.7926	16.00
27.0173	15.00
27.2419	18.00
27.4666	21.00
27.6913	22.00
27.9159	23.00
28.1406	20.00
28.3653	20.00
28.5899	28.00
28.8146	26.00
29.0393	19.00
29.2639	26.00
29.4886	27.00
29.7133	64.00
29.9379	81.00
30.1626	35.00
30.3873	26.00
30.6119	26.00
30.8366	27.00
31.0613	23.00
31.2859	22.00
31.5106	15.00
31.7353	31.00
31.9599	28.00
32.1846	77.00
32.4093	235.00
32.6339	41.00
32.8586	33.00
33.0833	81.00
33.3079	63.00
33.5326	26.00
33.7573	26.00
33.9819	27.00
34.2066	21.00
34.4313	17.00
34.6559	36.00
34.8806	36.00
35.1053	38.00
35.3299	69.00
35.5546	180.00
35.7793	416.00
36.0039	72.00
36.2286	60.00
36.4533	292.00
36.6779	188.00
36.9026	43.00
37.1273	37.00
37.3519	31.00
37.5766	19.00
37.8013	30.00
38.0259	25.00
38.2506	59.00
38.4753	46.00
38.6999	37.00
38.9246	60.00
39.1492	33.00
39.3739	39.00
39.5986	112.00
39.8232	159.00
40.0479	253.00
40.2726	71.00
40.4972	30.00
40.7219	38.00
40.9466	40.00
41.1712	34.00
41.3959	21.00
41.6206	40.00
41.8452	118.00
42.0699	14.00
42.2946	30.00
42.5192	20.00
42.7439	22.00
42.9686	16.00
43.1932	29.00
43.4179	14.00
43.6426	17.00
43.8672	23.00
44.0919	11.00
44.3166	28.00
44.5412	36.00
44.7659	27.00
44.9906	20.00
45.2152	23.00
45.4399	10.00
45.6646	12.00
45.8892	15.00
46.1139	20.00
46.3386	23.00
46.5632	31.00
46.7879	38.00
47.0126	19.00
47.2372	23.00
47.4619	13.00
47.6866	15.00
47.9112	13.00
48.1359	18.00
48.3606	42.00
48.5852	51.00
48.8099	36.00
49.0346	26.00
49.2592	18.00
49.4839	61.00
49.7086	26.00
49.9332	22.00
50.1579	28.00
50.3826	52.00
50.6072	23.00
50.8319	35.00
51.0566	43.00
51.2812	22.00
51.5059	17.00
51.7305	25.00
51.9552	60.00
52.1799	283.00
52.4045	302.00
52.6292	160.00
52.8539	78.00
53.0785	36.00
53.3032	28.00
53.5279	35.00
53.7525	26.00
53.9772	38.00
54.2019	56.00
54.4265	36.00
54.6512	35.00
54.8759	110.00
55.1005	55.00
55.3252	28.00
55.5499	34.00
55.7745	19.00
55.9992	51.00
56.2239	109.00
56.4485	74.00
56.6732	56.00
56.8979	111.00
57.1225	75.00
57.3472	43.00
57.5719	51.00
57.7965	43.00
58.0212	42.00
58.2459	28.00
58.4705	40.00
58.6952	89.00
58.9199	59.00
59.1445	31.00
59.3692	20.00
59.5939	42.00
59.8185	14.00
60.0432	33.00
60.2679	33.00
60.4925	36.00
60.7172	38.00
60.9419	56.00
61.1665	85.00
61.3912	77.00
61.6159	84.00
61.8405	146.00
62.0652	191.00
62.2899	110.00
62.5145	115.00
62.7392	277.00
62.9639	217.00
63.1885	83.00
63.4132	51.00
63.6379	51.00
63.8625	48.00
64.0872	52.00
64.3118	46.00
64.5365	38.00
64.7612	46.00
64.9858	44.00
65.2105	37.00
65.4352	41.00
65.6598	33.00
65.8845	36.00
66.1092	25.00
66.3338	41.00
66.5585	37.00
66.7832	68.00
67.0078	104.00
67.2325	100.00
67.4572	72.00
67.6818	42.00
67.9065	38.00
68.1312	30.00
68.3558	36.00
68.5805	28.00
68.8052	32.00
69.0298	50.00
69.2545	56.00
69.4792	164.00
69.7038	168.00
69.9285	82.00
70.0102	50.00