File: Suppl data/Spectra/XRD spectra/MS43BRED.txt
MS43BRED
Wavelength = 1.54059
5	8.00
5.2247	4.00
5.4493	8.00
5.674	7.00
5.8987	8.00
6.1233	9.00
6.348	6.00
6.5727	10.00
6.7973	7.00
7.022	7.00
7.2467	4.00
7.4713	10.00
7.696	8.00
7.9207	8.00
8.1453	19.00
8.37	11.00
8.5947	11.00
8.8193	14.00
9.044	7.00
9.2687	9.00
9.4933	12.00
9.718	9.00
9.9427	11.00
10.1673	8.00
10.392	7.00
10.6167	6.00
10.8413	7.00
11.066	10.00
11.2907	12.00
11.5153	14.00
11.74	14.00
11.9647	12.00
12.1893	8.00
12.414	9.00
12.6387	13.00
12.8633	12.00
13.088	13.00
13.3126	15.00
13.5373	17.00
13.762	10.00
13.9866	19.00
14.2113	23.00
14.436	16.00
14.6606	6.00
14.8853	12.00
15.11	19.00
15.3346	8.00
15.5593	12.00
15.784	14.00
16.0086	14.00
16.2333	10.00
16.458	14.00
16.6826	8.00
16.9073	11.00
17.132	12.00
17.3566	113.00
17.5813	14.00
17.806	11.00
18.0306	12.00
18.2553	10.00
18.48	7.00
18.7046	8.00
18.9293	9.00
19.154	21.00
19.3786	10.00
19.6033	11.00
19.828	14.00
20.0526	16.00
20.2773	23.00
20.502	14.00
20.7266	12.00
20.9513	16.00
21.176	9.00
21.4006	11.00
21.6253	8.00
21.85	9.00
22.0746	18.00
22.2993	14.00
22.524	23.00
22.7486	35.00
22.9733	93.00
23.198	18.00
23.4226	15.00
23.6473	17.00
23.872	113.00
24.0966	29.00
24.3213	28.00
24.546	18.00
24.7706	17.00
24.9953	14.00
25.22	9.00
25.4446	89.00
25.6693	51.00
25.894	15.00
26.1186	18.00
26.3433	17.00
26.5679	28.00
26.7926	22.00
27.0173	26.00
27.2419	27.00
27.4666	29.00
27.6913	73.00
27.9159	31.00
28.1406	53.00
28.3653	35.00
28.5899	21.00
28.8146	13.00
29.0393	18.00
29.2639	23.00
29.4886	27.00
29.7133	87.00
29.9379	148.00
30.1626	45.00
30.3873	104.00
30.6119	29.00
30.8366	55.00
31.0613	110.00
31.2859	35.00
31.5106	27.00
31.7353	29.00
31.9599	19.00
32.1846	71.00
32.4093	192.00
32.6339	36.00
32.8586	33.00
33.0833	51.00
33.3079	34.00
33.5326	17.00
33.7573	37.00
33.9819	20.00
34.2066	23.00
34.4313	20.00
34.6559	30.00
34.8806	47.00
35.1053	60.00
35.3299	61.00
35.5546	209.00
35.7793	441.00
36.0039	64.00
36.2286	59.00
36.4533	323.00
36.6779	157.00
36.9026	47.00
37.1273	30.00
37.3519	24.00
37.5766	26.00
37.8013	21.00
38.0259	29.00
38.2506	97.00
38.4753	32.00
38.6999	24.00
38.9246	61.00
39.1492	44.00
39.3739	43.00
39.5986	118.00
39.8232	129.00
40.0479	215.00
40.2726	58.00
40.4972	28.00
40.7219	24.00
40.9466	38.00
41.1712	28.00
41.3959	30.00
41.6206	36.00
41.8452	112.00
42.0699	41.00
42.2946	40.00
42.5192	43.00
42.7439	26.00
42.9686	36.00
43.1932	56.00
43.4179	25.00
43.6426	26.00
43.8672	20.00
44.0919	26.00
44.3166	25.00
44.5412	66.00
44.7659	27.00
44.9906	37.00
45.2152	29.00
45.4399	20.00
45.6646	27.00
45.8892	24.00
46.1139	32.00
46.3386	25.00
46.5632	38.00
46.7879	30.00
47.0126	26.00
47.2372	17.00
47.4619	23.00
47.6866	25.00
47.9112	23.00
48.1359	12.00
48.3606	38.00
48.5852	41.00
48.8099	27.00
49.0346	27.00
49.2592	30.00
49.4839	48.00
49.7086	45.00
49.9332	33.00
50.1579	22.00
50.3826	28.00
50.6072	27.00
50.8319	28.00
51.0566	49.00
51.2812	30.00
51.5059	24.00
51.7305	31.00
51.9552	60.00
52.1799	339.00
52.4045	243.00
52.6292	144.00
52.8539	60.00
53.0785	49.00
53.3032	33.00
53.5279	30.00
53.7525	29.00
53.9772	53.00
54.2019	45.00
54.4265	30.00
54.6512	26.00
54.8759	117.00
55.1005	51.00
55.3252	40.00
55.5499	26.00
55.7745	38.00
55.9992	64.00
56.2239	144.00
56.4485	62.00
56.6732	112.00
56.8979	133.00
57.1225	75.00
57.3472	41.00
57.5719	47.00
57.7965	47.00
58.0212	60.00
58.2459	34.00
58.4705	37.00
58.6952	78.00
58.9199	65.00
59.1445	46.00
59.3692	32.00
59.5939	32.00
59.8185	26.00
60.0432	30.00
60.2679	32.00
60.4925	49.00
60.7172	55.00
60.9419	62.00
61.1665	78.00
61.3912	73.00
61.6159	94.00
61.8405	149.00
62.0652	159.00
62.2899	95.00
62.5145	126.00
62.7392	272.00
62.9639	164.00
63.1885	64.00
63.4132	54.00
63.6379	40.00
63.8625	33.00
64.0872	41.00
64.3118	28.00
64.5365	30.00
64.7612	52.00
64.9858	46.00
65.2105	31.00
65.4352	49.00
65.6598	50.00
65.8845	65.00
66.1092	43.00
66.3338	44.00
66.5585	47.00
66.7832	87.00
67.0078	120.00
67.2325	89.00
67.4572	75.00
67.6818	43.00
67.9065	27.00
68.1312	34.00
68.3558	27.00
68.5805	37.00
68.8052	35.00
69.0298	42.00
69.2545	56.00
69.4792	155.00
69.7038	126.00
69.9285	73.00
70.0102	54.00