File: Suppl data/Spectra/XRD spectra/MS43B.txt
MS43B
Wavelength = 1.54059
5	7.00
5.2247	12.00
5.4493	6.00
5.674	13.00
5.8987	9.00
6.1233	6.00
6.348	5.00
6.5727	7.00
6.7973	3.00
7.022	10.00
7.2467	7.00
7.4713	14.00
7.696	10.00
7.9207	4.00
8.1453	5.00
8.37	12.00
8.5947	8.00
8.8193	12.00
9.044	8.00
9.2687	6.00
9.4933	14.00
9.718	11.00
9.9427	12.00
10.1673	12.00
10.392	14.00
10.6167	14.00
10.8413	11.00
11.066	14.00
11.2907	12.00
11.5153	18.00
11.74	31.00
11.9647	64.00
12.1893	116.00
12.414	35.00
12.6387	20.00
12.8633	21.00
13.088	13.00
13.3126	17.00
13.5373	13.00
13.762	13.00
13.9866	18.00
14.2113	12.00
14.436	14.00
14.6606	10.00
14.8853	14.00
15.11	11.00
15.3346	11.00
15.5593	10.00
15.784	17.00
16.0086	18.00
16.2333	17.00
16.458	14.00
16.6826	13.00
16.9073	15.00
17.132	9.00
17.3566	78.00
17.5813	10.00
17.806	12.00
18.0306	17.00
18.2553	19.00
18.48	14.00
18.7046	14.00
18.9293	15.00
19.154	29.00
19.3786	46.00
19.6033	40.00
19.828	28.00
20.0526	28.00
20.2773	21.00
20.502	27.00
20.7266	19.00
20.9513	27.00
21.176	22.00
21.4006	15.00
21.6253	14.00
21.85	14.00
22.0746	26.00
22.2993	16.00
22.524	25.00
22.7486	45.00
22.9733	44.00
23.198	25.00
23.4226	25.00
23.6473	36.00
23.872	86.00
24.0966	41.00
24.3213	93.00
24.546	105.00
24.7706	61.00
24.9953	35.00
25.22	31.00
25.4446	72.00
25.6693	26.00
25.894	24.00
26.1186	31.00
26.3433	16.00
26.5679	21.00
26.7926	13.00
27.0173	23.00
27.2419	17.00
27.4666	24.00
27.6913	86.00
27.9159	14.00
28.1406	30.00
28.3653	22.00
28.5899	14.00
28.8146	27.00
29.0393	13.00
29.2639	23.00
29.4886	26.00
29.7133	56.00
29.9379	97.00
30.1626	39.00
30.3873	75.00
30.6119	17.00
30.8366	49.00
31.0613	62.00
31.2859	15.00
31.5106	23.00
31.7353	19.00
31.9599	25.00
32.1846	54.00
32.4093	43.00
32.6339	22.00
32.8586	20.00
33.0833	25.00
33.3079	17.00
33.5326	31.00
33.7573	24.00
33.9819	34.00
34.2066	50.00
34.4313	50.00
34.6559	34.00
34.8806	64.00
35.1053	79.00
35.3299	116.00
35.5546	242.00
35.7793	245.00
36.0039	128.00
36.2286	96.00
36.4533	607.00
36.6779	97.00
36.9026	68.00
37.1273	71.00
37.3519	62.00
37.5766	57.00
37.8013	55.00
38.0259	37.00
38.2506	141.00
38.4753	38.00
38.6999	26.00
38.9246	44.00
39.1492	41.00
39.3739	49.00
39.5986	177.00
39.8232	44.00
40.0479	93.00
40.2726	35.00
40.4972	40.00
40.7219	32.00
40.9466	40.00
41.1712	51.00
41.3959	27.00
41.6206	45.00
41.8452	115.00
42.0699	87.00
42.2946	53.00
42.5192	44.00
42.7439	49.00
42.9686	65.00
43.1932	65.00
43.4179	35.00
43.6426	30.00
43.8672	31.00
44.0919	37.00
44.3166	41.00
44.5412	62.00
44.7659	25.00
44.9906	42.00
45.2152	38.00
45.4399	21.00
45.6646	27.00
45.8892	25.00
46.1139	36.00
46.3386	23.00
46.5632	46.00
46.7879	34.00
47.0126	24.00
47.2372	22.00
47.4619	23.00
47.6866	29.00
47.9112	20.00
48.1359	20.00
48.3606	47.00
48.5852	28.00
48.8099	38.00
49.0346	28.00
49.2592	31.00
49.4839	21.00
49.7086	47.00
49.9332	51.00
50.1579	47.00
50.3826	50.00
50.6072	35.00
50.8319	58.00
51.0566	48.00
51.2812	31.00
51.5059	41.00
51.7305	45.00
51.9552	38.00
52.1799	433.00
52.4045	123.00
52.6292	83.00
52.8539	54.00
53.0785	41.00
53.3032	49.00
53.5279	48.00
53.7525	36.00
53.9772	30.00
54.2019	31.00
54.4265	21.00
54.6512	39.00
54.8759	71.00
55.1005	33.00
55.3252	44.00
55.5499	22.00
55.7745	30.00
55.9992	98.00
56.2239	85.00
56.4485	38.00
56.6732	107.00
56.8979	120.00
57.1225	63.00
57.3472	57.00
57.5719	49.00
57.7965	55.00
58.0212	65.00
58.2459	34.00
58.4705	49.00
58.6952	55.00
58.9199	55.00
59.1445	54.00
59.3692	65.00
59.5939	76.00
59.8185	89.00
60.0432	129.00
60.2679	122.00
60.4925	101.00
60.7172	94.00
60.9419	80.00
61.1665	107.00
61.3912	78.00
61.6159	126.00
61.8405	231.00
62.0652	104.00
62.2899	81.00
62.5145	165.00
62.7392	154.00
62.9639	54.00
63.1885	51.00
63.4132	52.00
63.6379	42.00
63.8625	43.00
64.0872	28.00
64.3118	30.00
64.5365	38.00
64.7612	45.00
64.9858	40.00
65.2105	40.00
65.4352	39.00
65.6598	48.00
65.8845	50.00
66.1092	49.00
66.3338	42.00
66.5585	51.00
66.7832	75.00
67.0078	92.00
67.2325	90.00
67.4572	47.00
67.6818	36.00
67.9065	42.00
68.1312	27.00
68.3558	34.00
68.5805	38.00
68.8052	37.00
69.0298	45.00
69.2545	36.00
69.4792	58.00
69.7038	61.00
69.9285	30.00
70.0102	40.00