File: XRD Spectra/MS01BRED.txt
MS01BRED
Wavelength = 1.54059
5	7.00
5.2247	10.00
5.4493	15.00
5.674	9.00
5.8987	10.00
6.1233	10.00
6.348	11.00
6.5727	9.00
6.7973	17.00
7.022	5.00
7.2467	10.00
7.4713	11.00
7.696	11.00
7.9207	24.00
8.1453	9.00
8.37	6.00
8.5947	16.00
8.8193	10.00
9.044	11.00
9.2687	16.00
9.4933	15.00
9.718	23.00
9.9427	14.00
10.1673	13.00
10.392	14.00
10.6167	9.00
10.8413	12.00
11.066	13.00
11.2907	8.00
11.5153	15.00
11.74	8.00
11.9647	8.00
12.1893	11.00
12.414	10.00
12.6387	16.00
12.8633	12.00
13.088	12.00
13.3126	15.00
13.5373	19.00
13.762	11.00
13.9866	12.00
14.2113	11.00
14.436	14.00
14.6606	14.00
14.8853	16.00
15.11	11.00
15.3346	19.00
15.5593	10.00
15.784	22.00
16.0086	14.00
16.2333	15.00
16.458	13.00
16.6826	16.00
16.9073	9.00
17.132	18.00
17.3566	88.00
17.5813	32.00
17.806	10.00
18.0306	10.00
18.2553	14.00
18.48	18.00
18.7046	16.00
18.9293	13.00
19.154	18.00
19.3786	28.00
19.6033	22.00
19.828	17.00
20.0526	28.00
20.2773	12.00
20.502	14.00
20.7266	20.00
20.9513	21.00
21.176	20.00
21.4006	7.00
21.6253	27.00
21.85	22.00
22.0746	20.00
22.2993	20.00
22.524	18.00
22.7486	44.00
22.9733	147.00
23.198	34.00
23.4226	24.00
23.6473	33.00
23.872	120.00
24.0966	43.00
24.3213	26.00
24.546	21.00
24.7706	12.00
24.9953	20.00
25.22	22.00
25.4446	118.00
25.6693	46.00
25.894	22.00
26.1186	21.00
26.3433	23.00
26.5679	21.00
26.7926	22.00
27.0173	25.00
27.2419	35.00
27.4666	20.00
27.6913	39.00
27.9159	31.00
28.1406	33.00
28.3653	40.00
28.5899	43.00
28.8146	38.00
29.0393	32.00
29.2639	27.00
29.4886	31.00
29.7133	65.00
29.9379	132.00
30.1626	45.00
30.3873	78.00
30.6119	37.00
30.8366	44.00
31.0613	29.00
31.2859	21.00
31.5106	23.00
31.7353	34.00
31.9599	38.00
32.1846	79.00
32.4093	208.00
32.6339	37.00
32.8586	29.00
33.0833	68.00
33.3079	41.00
33.5326	32.00
33.7573	29.00
33.9819	27.00
34.2066	29.00
34.4313	31.00
34.6559	40.00
34.8806	42.00
35.1053	56.00
35.3299	57.00
35.5546	203.00
35.7793	433.00
36.0039	85.00
36.2286	69.00
36.4533	279.00
36.6779	224.00
36.9026	59.00
37.1273	35.00
37.3519	33.00
37.5766	26.00
37.8013	32.00
38.0259	36.00
38.2506	79.00
38.4753	74.00
38.6999	43.00
38.9246	83.00
39.1492	43.00
39.3739	45.00
39.5986	134.00
39.8232	184.00
40.0479	274.00
40.2726	64.00
40.4972	33.00
40.7219	41.00
40.9466	41.00
41.1712	37.00
41.3959	22.00
41.6206	61.00
41.8452	124.00
42.0699	44.00
42.2946	30.00
42.5192	29.00
42.7439	30.00
42.9686	46.00
43.1932	33.00
43.4179	24.00
43.6426	25.00
43.8672	21.00
44.0919	20.00
44.3166	39.00
44.5412	59.00
44.7659	29.00
44.9906	35.00
45.2152	28.00
45.4399	11.00
45.6646	13.00
45.8892	15.00
46.1139	30.00
46.3386	29.00
46.5632	60.00
46.7879	40.00
47.0126	24.00
47.2372	28.00
47.4619	21.00
47.6866	26.00
47.9112	26.00
48.1359	38.00
48.3606	32.00
48.5852	48.00
48.8099	34.00
49.0346	46.00
49.2592	21.00
49.4839	40.00
49.7086	46.00
49.9332	23.00
50.1579	33.00
50.3826	37.00
50.6072	27.00
50.8319	26.00
51.0566	49.00
51.2812	30.00
51.5059	24.00
51.7305	40.00
51.9552	53.00
52.1799	292.00
52.4045	318.00
52.6292	154.00
52.8539	66.00
53.0785	35.00
53.3032	25.00
53.5279	51.00
53.7525	31.00
53.9772	49.00
54.2019	51.00
54.4265	46.00
54.6512	35.00
54.8759	99.00
55.1005	75.00
55.3252	43.00
55.5499	33.00
55.7745	37.00
55.9992	55.00
56.2239	110.00
56.4485	71.00
56.6732	72.00
56.8979	151.00
57.1225	68.00
57.3472	41.00
57.5719	40.00
57.7965	47.00
58.0212	53.00
58.2459	41.00
58.4705	39.00
58.6952	92.00
58.9199	70.00
59.1445	42.00
59.3692	31.00
59.5939	35.00
59.8185	34.00
60.0432	37.00
60.2679	56.00
60.4925	54.00
60.7172	57.00
60.9419	71.00
61.1665	86.00
61.3912	76.00
61.6159	117.00
61.8405	137.00
62.0652	200.00
62.2899	111.00
62.5145	116.00
62.7392	243.00
62.9639	194.00
63.1885	73.00
63.4132	56.00
63.6379	56.00
63.8625	32.00
64.0872	50.00
64.3118	41.00
64.5365	34.00
64.7612	53.00
64.9858	55.00
65.2105	33.00
65.4352	35.00
65.6598	39.00
65.8845	42.00
66.1092	36.00
66.3338	32.00
66.5585	54.00
66.7832	59.00
67.0078	104.00
67.2325	88.00
67.4572	87.00
67.6818	70.00
67.9065	42.00
68.1312	34.00
68.3558	47.00
68.5805	45.00
68.8052	42.00
69.0298	37.00
69.2545	52.00
69.4792	160.00
69.7038	155.00
69.9285	69.00
70.0102	55.00