File: XRD Spectra/MS02B.txt
MS02B
Wavelength = 1.54059
5	7.00
5.2247	9.00
5.4493	13.00
5.674	8.00
5.8987	12.00
6.1233	7.00
6.348	9.00
6.5727	8.00
6.7973	11.00
7.022	7.00
7.2467	4.00
7.4713	8.00
7.696	10.00
7.9207	10.00
8.1453	7.00
8.37	9.00
8.5947	4.00
8.8193	13.00
9.044	13.00
9.2687	5.00
9.4933	10.00
9.718	18.00
9.9427	5.00
10.1673	12.00
10.392	19.00
10.6167	16.00
10.8413	11.00
11.066	17.00
11.2907	15.00
11.5153	29.00
11.74	24.00
11.9647	49.00
12.1893	675.00
12.414	81.00
12.6387	36.00
12.8633	22.00
13.088	14.00
13.3126	17.00
13.5373	26.00
13.762	33.00
13.9866	18.00
14.2113	12.00
14.436	16.00
14.6606	18.00
14.8853	9.00
15.11	13.00
15.3346	16.00
15.5593	14.00
15.784	15.00
16.0086	15.00
16.2333	9.00
16.458	20.00
16.6826	11.00
16.9073	12.00
17.132	16.00
17.3566	39.00
17.5813	13.00
17.806	11.00
18.0306	15.00
18.2553	17.00
18.48	11.00
18.7046	13.00
18.9293	33.00
19.154	31.00
19.3786	42.00
19.6033	39.00
19.828	33.00
20.0526	29.00
20.2773	19.00
20.502	21.00
20.7266	31.00
20.9513	27.00
21.176	27.00
21.4006	28.00
21.6253	33.00
21.85	18.00
22.0746	19.00
22.2993	38.00
22.524	21.00
22.7486	42.00
22.9733	46.00
23.198	28.00
23.4226	27.00
23.6473	35.00
23.872	50.00
24.0966	48.00
24.3213	99.00
24.546	415.00
24.7706	251.00
24.9953	92.00
25.22	59.00
25.4446	79.00
25.6693	32.00
25.894	25.00
26.1186	32.00
26.3433	49.00
26.5679	29.00
26.7926	26.00
27.0173	19.00
27.2419	22.00
27.4666	24.00
27.6913	56.00
27.9159	19.00
28.1406	22.00
28.3653	19.00
28.5899	34.00
28.8146	23.00
29.0393	31.00
29.2639	30.00
29.4886	23.00
29.7133	39.00
29.9379	79.00
30.1626	58.00
30.3873	70.00
30.6119	12.00
30.8366	29.00
31.0613	21.00
31.2859	21.00
31.5106	20.00
31.7353	18.00
31.9599	30.00
32.1846	31.00
32.4093	43.00
32.6339	29.00
32.8586	27.00
33.0833	50.00
33.3079	23.00
33.5326	39.00
33.7573	42.00
33.9819	37.00
34.2066	43.00
34.4313	42.00
34.6559	67.00
34.8806	58.00
35.1053	95.00
35.3299	163.00
35.5546	492.00
35.7793	234.00
36.0039	98.00
36.2286	70.00
36.4533	283.00
36.6779	89.00
36.9026	52.00
37.1273	89.00
37.3519	62.00
37.5766	63.00
37.8013	50.00
38.0259	35.00
38.2506	95.00
38.4753	45.00
38.6999	44.00
38.9246	36.00
39.1492	42.00
39.3739	46.00
39.5986	102.00
39.8232	43.00
40.0479	67.00
40.2726	50.00
40.4972	55.00
40.7219	52.00
40.9466	60.00
41.1712	59.00
41.3959	65.00
41.6206	117.00
41.8452	158.00
42.0699	112.00
42.2946	63.00
42.5192	81.00
42.7439	53.00
42.9686	61.00
43.1932	49.00
43.4179	37.00
43.6426	27.00
43.8672	28.00
44.0919	24.00
44.3166	27.00
44.5412	46.00
44.7659	38.00
44.9906	34.00
45.2152	34.00
45.4399	20.00
45.6646	24.00
45.8892	27.00
46.1139	26.00
46.3386	25.00
46.5632	23.00
46.7879	26.00
47.0126	21.00
47.2372	21.00
47.4619	27.00
47.6866	22.00
47.9112	24.00
48.1359	42.00
48.3606	48.00
48.5852	27.00
48.8099	40.00
49.0346	38.00
49.2592	42.00
49.4839	41.00
49.7086	59.00
49.9332	55.00
50.1579	71.00
50.3826	87.00
50.6072	47.00
50.8319	64.00
51.0566	52.00
51.2812	59.00
51.5059	57.00
51.7305	47.00
51.9552	39.00
52.1799	311.00
52.4045	100.00
52.6292	115.00
52.8539	66.00
53.0785	44.00
53.3032	36.00
53.5279	50.00
53.7525	46.00
53.9772	48.00
54.2019	43.00
54.4265	46.00
54.6512	38.00
54.8759	64.00
55.1005	43.00
55.3252	47.00
55.5499	43.00
55.7745	47.00
55.9992	58.00
56.2239	74.00
56.4485	52.00
56.6732	55.00
56.8979	96.00
57.1225	55.00
57.3472	46.00
57.5719	36.00
57.7965	43.00
58.0212	48.00
58.2459	50.00
58.4705	60.00
58.6952	59.00
58.9199	93.00
59.1445	146.00
59.3692	97.00
59.5939	73.00
59.8185	91.00
60.0432	126.00
60.2679	133.00
60.4925	129.00
60.7172	110.00
60.9419	99.00
61.1665	114.00
61.3912	120.00
61.6159	108.00
61.8405	151.00
62.0652	116.00
62.2899	90.00
62.5145	103.00
62.7392	138.00
62.9639	66.00
63.1885	63.00
63.4132	76.00
63.6379	56.00
63.8625	40.00
64.0872	54.00
64.3118	65.00
64.5365	45.00
64.7612	67.00
64.9858	44.00
65.2105	41.00
65.4352	38.00
65.6598	48.00
65.8845	51.00
66.1092	39.00
66.3338	49.00
66.5585	32.00
66.7832	53.00
67.0078	58.00
67.2325	41.00
67.4572	49.00
67.6818	32.00
67.9065	44.00
68.1312	39.00
68.3558	39.00
68.5805	37.00
68.8052	37.00
69.0298	38.00
69.2545	46.00
69.4792	66.00
69.7038	52.00
69.9285	52.00
70.0102	53.00